<?xml version="1.0" encoding="UTF-8"?>
<Profile>
<triggerMode>AUTO</triggerMode>
<triggerKind>EdgeFalling</triggerKind>
<triggerLevel>24.0V</triggerLevel>
<triggerSensitivity>3.20V</triggerSensitivity>
<attenuation>x1</attenuation>
<voltageDiv>10V</voltageDiv>
<timeDiv>200us</timeDiv>
<sampleDiv>200us</sampleDiv>
<firmware>V3.62</firmware>
<fileNumber>S001</fileNumber>
<triggerIndex>1470</triggerIndex>
<sampleCount>4098</sampleCount>
<timeRange>32.78e-3</timeRange>
</Profile>
0 -17.51 
1 -17.38 
2 -17.31 
3 -17.26 
4 -17.20 
5 -17.13 
6 -17.11 
7 -17.54 
8 18.51 
9 17.81 
10 17.51 
11 17.24 
12 17.06 
13 16.92 
14 16.79 
15 16.68 
16 16.59 
17 16.54 
18 16.50 
19 16.43 
20 16.38 
21 -21.58 
22 -18.73 
23 -18.39 
24 -18.12 
25 -17.90 
26 -17.69 
27 -17.56 
28 -17.47 
29 -17.38 
30 -17.29 
31 -17.20 
32 -17.20 
33 -17.13 
34 -17.08 
35 18.78 
36 17.92 
37 17.60 
38 17.35 
39 17.13 
40 16.95 
41 16.81 
42 16.72 
43 16.65 
44 16.54 
45 16.50 
46 16.45 
47 16.43 
48 16.68 
49 -19.21 
50 -18.51 
51 -18.19 
52 -17.94 
53 -17.78 
54 -17.60 
55 -17.47 
56 -17.38 
57 -17.29 
58 -17.24 
59 -17.17 
60 -17.13 
61 -17.13 
62 15.68 
63 18.15 
64 17.72 
65 17.42 
66 17.20 
67 17.04 
68 16.90 
69 16.74 
70 16.63 
71 16.61 
72 16.54 
73 16.47 
74 16.43 
75 16.41 
76 -19.43 
77 -18.62 
78 -18.30 
79 -18.01 
80 -17.81 
81 -17.63 
82 -17.54 
83 -17.42 
84 -17.31 
85 -17.22 
86 -17.20 
87 -17.13 
88 -17.08 
89 -17.47 
90 18.57 
91 17.85 
92 17.54 
93 17.29 
94 17.08 
95 16.92 
96 16.81 
97 16.70 
98 16.61 
99 16.54 
100 16.50 
101 16.47 
102 16.41 
103 -15.98 
104 -18.85 
105 -18.37 
106 -18.08 
107 -17.90 
108 -17.69 
109 -17.54 
110 -17.42 
111 -17.35 
112 -17.26 
113 -17.20 
114 -17.13 
115 -17.11 
116 -17.08 
117 19.03 
118 17.99 
119 17.63 
120 17.35 
121 17.15 
122 17.02 
123 16.88 
124 16.74 
125 16.65 
126 16.56 
127 16.52 
128 16.45 
129 16.43 
130 16.56 
131 -19.21 
132 -18.53 
133 -18.21 
134 -17.94 
135 -17.72 
136 -17.58 
137 -17.47 
138 -17.35 
139 -17.26 
140 -17.22 
141 -17.15 
142 -17.11 
143 -17.04 
144 3.231 
145 18.35 
146 17.76 
147 17.47 
148 17.24 
149 17.04 
150 16.90 
151 16.79 
152 16.70 
153 16.59 
154 16.52 
155 16.52 
156 16.45 
157 16.41 
158 -19.64 
159 -18.64 
160 -18.28 
161 -18.01 
162 -17.81 
163 -17.63 
164 -17.49 
165 -17.38 
166 -17.31 
167 -17.22 
168 -17.15 
169 -17.11 
170 -17.08 
171 -17.65 
172 18.66 
173 17.92 
174 17.54 
175 17.31 
176 17.13 
177 16.97 
178 16.81 
179 16.72 
180 16.63 
181 16.59 
182 16.50 
183 16.45 
184 16.45 
185 -1.785 
186 -19.03 
187 -18.39 
188 -18.10 
189 -17.85 
190 -17.69 
191 -17.54 
192 -17.40 
193 -17.29 
194 -17.22 
195 -17.17 
196 -17.11 
197 -17.06 
198 -17.02 
199 19.46 
200 18.03 
201 17.69 
202 17.42 
203 17.17 
204 17.02 
205 16.90 
206 16.77 
207 16.65 
208 16.59 
209 16.54 
210 16.47 
211 16.43 
212 16.43 
213 -19.25 
214 -18.51 
215 -18.19 
216 -17.94 
217 -17.74 
218 -17.56 
219 -17.85 
220 18.21 
221 17.56 
222 17.31 
223 17.13 
224 16.92 
225 16.83 
226 12.22 
227 -18.73 
228 -18.19 
229 -17.94 
230 -17.74 
231 -17.54 
232 -17.42 
233 8.587 
234 18.03 
235 17.56 
236 17.29 
237 17.08 
238 16.92 
239 16.81 
240 -20.38 
241 -18.42 
242 -18.10 
243 -17.85 
244 -17.65 
245 -17.51 
246 -17.40 
247 18.78 
248 17.78 
249 17.42 
250 17.20 
251 17.04 
252 16.88 
253 16.77 
254 -19.03 
255 -18.30 
256 -17.99 
257 -17.78 
258 -17.60 
259 -17.47 
260 -17.87 
261 18.33 
262 17.63 
263 17.35 
264 17.17 
265 16.99 
266 16.83 
267 17.04 
268 -18.80 
269 -18.17 
270 -17.94 
271 -17.72 
272 -17.54 
273 -17.44 
274 1.198 
275 18.12 
276 17.56 
277 17.31 
278 17.08 
279 16.92 
280 16.81 
281 -20.77 
282 -18.42 
283 -18.10 
284 -17.87 
285 -17.65 
286 -17.54 
287 -17.40 
288 19.23 
289 17.81 
290 17.47 
291 17.22 
292 17.04 
293 16.90 
294 16.77 
295 -19.05 
296 -18.30 
297 -17.99 
298 -17.78 
299 -17.60 
300 -17.47 
301 -17.83 
302 18.39 
303 17.67 
304 17.38 
305 17.17 
306 17.02 
307 16.88 
308 16.99 
309 -18.82 
310 -18.19 
311 -17.92 
312 -17.72 
313 -17.54 
314 -17.40 
315 -8.858 
316 18.08 
317 17.56 
318 17.31 
319 17.11 
320 16.95 
321 16.81 
322 -17.65 
323 -18.44 
324 -18.10 
325 -17.85 
326 -17.65 
327 -17.47 
328 -17.38 
329 19.09 
330 17.83 
331 17.49 
332 17.24 
333 17.04 
334 16.90 
335 16.81 
336 -19.09 
337 -18.30 
338 -18.01 
339 -17.76 
340 -17.58 
341 -17.47 
342 -17.35 
343 18.44 
344 17.72 
345 17.40 
346 17.20 
347 16.99 
348 16.88 
349 17.02 
350 -18.87 
351 -18.19 
352 -17.92 
353 -17.72 
354 -17.54 
355 -17.40 
356 -17.63 
357 18.21 
358 17.58 
359 17.31 
360 17.13 
361 16.97 
362 16.81 
363 -13.40 
364 -18.51 
365 -18.10 
366 -17.87 
367 -17.67 
368 -17.49 
369 -17.35 
370 19.00 
371 17.81 
372 17.51 
373 17.26 
374 17.06 
375 16.90 
376 16.79 
377 -19.16 
378 -18.35 
379 -18.03 
380 -17.78 
381 -17.58 
382 -17.47 
383 -17.35 
384 18.46 
385 17.72 
386 17.42 
387 17.17 
388 17.02 
389 16.88 
390 16.77 
391 -18.89 
392 -18.21 
393 -17.94 
394 -17.72 
395 -17.56 
396 -17.42 
397 -17.74 
398 18.26 
399 17.60 
400 17.33 
401 17.13 
402 16.99 
403 16.81 
404 -6.169 
405 -18.62 
406 -18.12 
407 -17.85 
408 -17.67 
409 -17.51 
410 -17.38 
411 16.63 
412 17.87 
413 17.49 
414 17.24 
415 17.08 
416 16.90 
417 16.79 
418 -19.34 
419 -18.33 
420 -18.03 
421 -17.78 
422 -17.60 
423 -17.44 
424 -17.35 
425 18.53 
426 17.74 
427 17.44 
428 17.20 
429 17.02 
430 16.88 
431 16.77 
432 -18.89 
433 -18.24 
434 -17.94 
435 -17.72 
436 -17.51 
437 -17.42 
438 -17.72 
439 18.30 
440 17.63 
441 17.31 
442 17.15 
443 16.99 
444 16.86 
445 4.813 
446 -18.60 
447 -18.12 
448 -17.85 
449 -17.67 
450 -17.49 
451 -17.35 
452 11.75 
453 17.96 
454 17.51 
455 17.29 
456 17.11 
457 16.95 
458 16.79 
459 -19.82 
460 -18.33 
461 -17.99 
462 -17.81 
463 -17.58 
464 -17.42 
465 -17.31 
466 18.66 
467 17.76 
468 17.44 
469 17.22 
470 17.02 
471 16.88 
472 16.77 
473 -18.91 
474 -18.21 
475 -17.94 
476 -17.72 
477 -17.51 
478 -17.40 
479 -17.76 
480 18.33 
481 17.65 
482 17.35 
483 17.13 
484 16.97 
485 16.86 
486 16.99 
487 -18.76 
488 -18.15 
489 -17.85 
490 -17.65 
491 -17.49 
492 -17.35 
493 5.084 
494 18.08 
495 17.54 
496 17.26 
497 17.08 
498 16.97 
499 16.81 
500 -21.13 
501 -18.35 
502 -18.03 
503 -17.78 
504 -17.60 
505 -17.47 
506 -17.31 
507 18.98 
508 17.74 
509 17.47 
510 17.22 
511 17.04 
512 16.88 
513 16.77 
514 -18.96 
515 -18.24 
516 -17.94 
517 -17.74 
518 -17.56 
519 -17.40 
520 -17.94 
521 18.35 
522 17.65 
523 17.40 
524 17.15 
525 16.97 
526 16.83 
527 17.04 
528 -18.76 
529 -18.17 
530 -17.85 
531 -17.65 
532 -17.49 
533 -17.38 
534 -3.751 
535 18.01 
536 17.58 
537 17.29 
538 17.08 
539 16.92 
540 16.83 
541 -19.00 
542 -18.39 
543 -18.03 
544 -17.78 
545 -17.60 
546 -17.47 
547 -17.31 
548 19.23 
549 17.81 
550 17.44 
551 17.24 
552 17.06 
553 16.90 
554 16.77 
555 -19.00 
556 -18.24 
557 -17.94 
558 -17.76 
559 -17.54 
560 -17.40 
561 -17.29 
562 18.37 
563 17.65 
564 17.40 
565 17.17 
566 16.99 
567 16.83 
568 17.04 
569 -18.73 
570 -18.15 
571 -17.87 
572 -17.65 
573 -17.47 
574 -17.35 
575 -15.37 
576 18.17 
577 17.58 
578 17.31 
579 17.08 
580 16.95 
581 16.81 
582 -15.46 
583 -18.42 
584 -18.03 
585 -17.78 
586 -17.56 
587 -17.42 
588 -17.33 
589 19.05 
590 17.83 
591 17.47 
592 17.24 
593 17.04 
594 16.92 
595 16.77 
596 -19.05 
597 -18.26 
598 -17.94 
599 -17.72 
600 -17.56 
601 -17.40 
602 -17.26 
603 18.46 
604 17.69 
605 17.40 
606 17.15 
607 17.02 
608 16.88 
609 16.88 
610 -18.78 
611 -18.12 
612 -17.85 
613 -17.67 
614 -17.49 
615 -17.33 
616 -17.69 
617 18.21 
618 17.60 
619 17.33 
620 17.11 
621 16.95 
622 16.81 
623 -9.739 
624 -18.51 
625 -18.05 
626 -17.78 
627 -17.58 
628 -17.42 
629 -17.33 
630 18.21 
631 17.85 
632 17.51 
633 17.22 
634 17.04 
635 16.90 
636 16.79 
637 -19.21 
638 -18.28 
639 -17.96 
640 -17.72 
641 -17.54 
642 -17.40 
643 -17.29 
644 18.51 
645 17.72 
646 17.40 
647 17.17 
648 17.02 
649 16.88 
650 16.72 
651 -18.85 
652 -18.15 
653 -17.87 
654 -17.67 
655 -17.49 
656 -17.33 
657 -17.63 
658 18.26 
659 17.58 
660 17.33 
661 17.13 
662 16.95 
663 16.81 
664 -1.243 
665 -18.62 
666 -18.05 
667 -17.81 
668 -17.58 
669 -17.42 
670 -17.33 
671 14.51 
672 17.90 
673 17.54 
674 17.26 
675 17.06 
676 16.90 
677 16.79 
678 -19.43 
679 -18.30 
680 -17.94 
681 -17.72 
682 -17.51 
683 -17.40 
684 -17.26 
685 -17.17 
686 -17.11 
687 -17.02 
688 -16.99 
689 -16.92 
690 -16.90 
691 -16.88 
692 18.71 
693 17.92 
694 17.60 
695 17.35 
696 17.11 
697 16.95 
698 16.83 
699 16.72 
700 16.61 
701 16.54 
702 16.50 
703 16.47 
704 16.41 
705 11.52 
706 -18.87 
707 -18.28 
708 -18.01 
709 -17.76 
710 -17.58 
711 -17.44 
712 -17.31 
713 -17.22 
714 -17.13 
715 -17.06 
716 -17.02 
717 -16.99 
718 -16.97 
719 19.34 
720 18.08 
721 17.67 
722 17.40 
723 17.20 
724 17.02 
725 16.88 
726 16.74 
727 16.68 
728 16.59 
729 16.52 
730 16.47 
731 16.43 
732 16.41 
733 -19.27 
734 -18.55 
735 -18.19 
736 -17.92 
737 -17.74 
738 -17.60 
739 -17.47 
740 -17.35 
741 -17.26 
742 -17.24 
743 -17.15 
744 -17.11 
745 -17.06 
746 -17.51 
747 18.51 
748 17.83 
749 17.49 
750 17.24 
751 17.06 
752 16.92 
753 16.81 
754 16.70 
755 16.59 
756 16.54 
757 16.50 
758 16.43 
759 16.38 
760 -21.33 
761 -18.76 
762 -18.39 
763 -18.15 
764 -17.92 
765 -17.72 
766 -17.58 
767 -17.49 
768 -17.38 
769 -17.31 
770 -17.24 
771 -17.20 
772 -17.17 
773 -17.13 
774 18.80 
775 17.94 
776 17.58 
777 17.35 
778 17.15 
779 16.97 
780 16.83 
781 16.72 
782 16.63 
783 16.56 
784 16.50 
785 16.45 
786 16.43 
787 16.65 
788 -19.25 
789 -18.57 
790 -18.26 
791 -17.99 
792 -17.85 
793 -17.67 
794 -17.54 
795 -17.42 
796 -17.35 
797 -17.31 
798 -17.24 
799 -17.15 
800 -17.15 
801 13.78 
802 18.19 
803 17.74 
804 17.44 
805 17.20 
806 17.04 
807 16.90 
808 16.77 
809 16.68 
810 16.59 
811 16.54 
812 16.50 
813 16.43 
814 16.38 
815 -19.50 
816 -18.69 
817 -18.35 
818 -18.10 
819 -17.87 
820 -17.69 
821 -17.58 
822 18.35 
823 17.63 
824 17.35 
825 17.13 
826 16.95 
827 16.83 
828 16.99 
829 -19.00 
830 -18.39 
831 -18.08 
832 -17.85 
833 -17.69 
834 -17.56 
835 -17.44 
836 -17.33 
837 -17.26 
838 -17.24 
839 -17.17 
840 -17.13 
841 -17.08 
842 7.977 
843 18.30 
844 17.76 
845 17.49 
846 17.22 
847 17.04 
848 16.92 
849 16.79 
850 16.68 
851 16.59 
852 16.54 
853 16.50 
854 16.43 
855 16.41 
856 -19.59 
857 -18.69 
858 -18.35 
859 -18.10 
860 -17.87 
861 -17.69 
862 -17.56 
863 -17.44 
864 -17.35 
865 -17.26 
866 -17.22 
867 -17.20 
868 -17.15 
869 -17.65 
870 18.64 
871 17.87 
872 17.54 
873 17.31 
874 17.13 
875 16.95 
876 16.81 
877 16.72 
878 16.61 
879 16.54 
880 16.50 
881 16.45 
882 16.43 
883 -7.841 
884 -19.03 
885 -18.46 
886 -18.17 
887 -17.94 
888 -17.78 
889 -17.60 
890 17.02 
891 17.81 
892 17.44 
893 17.20 
894 17.02 
895 16.90 
896 16.74 
897 -19.48 
898 -18.51 
899 -18.17 
900 -17.94 
901 -17.76 
902 -17.60 
903 -17.47 
904 -17.38 
905 -17.31 
906 -17.22 
907 -17.17 
908 -17.13 
909 -17.11 
910 -17.40 
911 18.71 
912 17.94 
913 17.58 
914 17.31 
915 17.15 
916 16.97 
917 16.81 
918 16.70 
919 16.65 
920 16.59 
921 16.50 
922 16.45 
923 16.43 
924 1.695 
925 -18.94 
926 -18.51 
927 -18.17 
928 -17.94 
929 -17.72 
930 -17.60 
931 -17.47 
932 -17.35 
933 -17.29 
934 -17.26 
935 -17.17 
936 -17.13 
937 -17.08 
938 19.39 
939 18.05 
940 17.69 
941 17.44 
942 17.17 
943 17.02 
944 16.88 
945 16.77 
946 16.65 
947 16.59 
948 16.54 
949 16.50 
950 16.43 
951 16.41 
952 -19.34 
953 -18.57 
954 -18.24 
955 -18.01 
956 -17.81 
957 -17.63 
958 -17.94 
959 18.26 
960 17.58 
961 17.33 
962 17.13 
963 16.95 
964 16.81 
965 15.86 
966 -18.87 
967 -18.26 
968 -18.01 
969 -17.78 
970 -17.60 
971 -17.49 
972 6.643 
973 18.05 
974 17.56 
975 17.29 
976 17.08 
977 16.95 
978 16.81 
979 -20.88 
980 -18.48 
981 -18.15 
982 -17.92 
983 -17.72 
984 -17.58 
985 -17.44 
986 -17.33 
987 -17.26 
988 -17.22 
989 -17.15 
990 -17.13 
991 -17.06 
992 -17.04 
993 18.78 
994 17.96 
995 17.65 
996 17.38 
997 17.15 
998 16.97 
999 16.88 
1000 16.77 
1001 16.63 
1002 16.56 
1003 16.52 
1004 16.50 
1005 16.43 
1006 16.65 
1007 -19.16 
1008 -18.48 
1009 -18.19 
1010 -17.94 
1011 -17.74 
1012 -17.58 
1013 -17.47 
1014 -17.40 
1015 -17.29 
1016 -17.20 
1017 -17.17 
1018 -17.13 
1019 -17.08 
1020 16.77 
1021 18.15 
1022 17.69 
1023 17.44 
1024 17.22 
1025 17.06 
1026 16.88 
1027 16.77 
1028 16.70 
1029 16.61 
1030 16.47 
1031 16.47 
1032 16.45 
1033 16.41 
1034 -19.43 
1035 -18.64 
1036 -18.28 
1037 -18.01 
1038 -17.83 
1039 -17.65 
1040 -17.49 
1041 -17.38 
1042 -17.31 
1043 -17.24 
1044 -17.17 
1045 -17.11 
1046 -17.06 
1047 -17.47 
1048 18.57 
1049 17.87 
1050 17.56 
1051 17.26 
1052 17.08 
1053 16.95 
1054 16.81 
1055 16.70 
1056 16.63 
1057 16.56 
1058 16.52 
1059 16.45 
1060 16.41 
1061 -16.86 
1062 -18.80 
1063 -18.37 
1064 -18.10 
1065 -17.87 
1066 -17.67 
1067 -17.54 
1068 -17.42 
1069 -17.33 
1070 -17.24 
1071 -17.17 
1072 -17.15 
1073 -17.08 
1074 -17.02 
1075 19.00 
1076 17.96 
1077 17.65 
1078 17.38 
1079 17.17 
1080 16.99 
1081 16.88 
1082 16.77 
1083 16.68 
1084 16.59 
1085 16.52 
1086 16.47 
1087 16.45 
1088 16.63 
1089 -19.21 
1090 -18.48 
1091 -18.17 
1092 -17.92 
1093 -17.74 
1094 -17.58 
1095 -17.42 
1096 -17.33 
1097 -17.29 
1098 -17.20 
1099 -17.13 
1100 -17.08 
1101 -17.06 
1102 5.491 
1103 18.35 
1104 17.78 
1105 17.47 
1106 17.22 
1107 17.06 
1108 16.92 
1109 16.79 
1110 16.65 
1111 16.61 
1112 16.56 
1113 16.50 
1114 16.43 
1115 16.41 
1116 -19.55 
1117 -18.64 
1118 -18.30 
1119 -18.03 
1120 -17.78 
1121 -17.60 
1122 -17.51 
1123 -17.38 
1124 -17.29 
1125 -17.22 
1126 -17.17 
1127 -17.13 
1128 -17.06 
1129 -17.65 
1130 18.64 
1131 17.90 
1132 17.56 
1133 17.33 
1134 17.11 
1135 16.95 
1136 16.83 
1137 16.72 
1138 16.63 
1139 16.56 
1140 16.50 
1141 16.47 
1142 16.43 
1143 -5.062 
1144 -18.98 
1145 -18.39 
1146 -18.10 
1147 -17.87 
1148 -17.69 
1149 -17.54 
1150 -17.42 
1151 -17.33 
1152 -17.24 
1153 -17.17 
1154 -17.11 
1155 -17.08 
1156 -17.04 
1157 19.55 
1158 18.03 
1159 17.67 
1160 17.40 
1161 17.17 
1162 17.04 
1163 16.88 
1164 16.74 
1165 16.65 
1166 16.59 
1167 16.54 
1168 16.47 
1169 16.43 
1170 16.43 
1171 -19.23 
1172 -18.51 
1173 -18.19 
1174 -17.94 
1175 -17.72 
1176 -17.58 
1177 -17.85 
1178 18.24 
1179 17.58 
1180 17.31 
1181 17.11 
1182 16.92 
1183 16.81 
1184 6.485 
1185 -18.69 
1186 -18.19 
1187 -17.90 
1188 -17.72 
1189 -17.56 
1190 -17.44 
1191 10.98 
1192 17.99 
1193 17.51 
1194 17.29 
1195 17.08 
1196 16.95 
1197 16.79 
1198 -20.00 
1199 -18.37 
1200 -18.08 
1201 -17.85 
1202 -17.65 
1203 -17.49 
1204 -17.38 
1205 -17.29 
1206 -17.22 
1207 -17.13 
1208 -17.08 
1209 -17.04 
1210 -17.02 
1211 -16.99 
1212 18.78 
1213 17.96 
1214 17.58 
1215 17.33 
1216 17.15 
1217 16.99 
1218 16.83 
1219 16.72 
1220 16.65 
1221 16.59 
1222 16.50 
1223 16.45 
1224 16.45 
1225 16.70 
1226 -19.07 
1227 -18.39 
1228 -18.10 
1229 -17.85 
1230 -17.67 
1231 -17.51 
1232 4.067 
1233 18.05 
1234 17.49 
1235 17.24 
1236 17.08 
1237 16.92 
1238 16.79 
1239 -21.24 
1240 -18.42 
1241 -18.10 
1242 -17.85 
1243 -17.67 
1244 -17.51 
1245 -17.35 
1246 -17.29 
1247 -17.20 
1248 -17.13 
1249 -17.08 
1250 -17.02 
1251 -17.02 
1252 -16.99 
1253 18.80 
1254 17.96 
1255 17.65 
1256 17.33 
1257 17.15 
1258 17.02 
1259 16.88 
1260 16.72 
1261 16.65 
1262 16.56 
1263 16.52 
1264 16.43 
1265 16.43 
1266 16.68 
1267 -19.09 
1268 -18.42 
1269 -18.12 
1270 -17.87 
1271 -17.67 
1272 -17.54 
1273 -17.40 
1274 -17.29 
1275 -17.20 
1276 -17.15 
1277 -17.08 
1278 -17.06 
1279 -16.99 
1280 15.34 
1281 18.17 
1282 17.74 
1283 17.44 
1284 17.24 
1285 17.02 
1286 16.88 
1287 16.77 
1288 16.68 
1289 16.59 
1290 16.54 
1291 16.50 
1292 16.45 
1293 16.41 
1294 -19.39 
1295 -18.55 
1296 -18.19 
1297 -17.94 
1298 -17.74 
1299 -17.56 
1300 -17.42 
1301 18.33 
1302 17.60 
1303 17.35 
1304 17.15 
1305 16.97 
1306 16.81 
1307 17.02 
1308 -18.85 
1309 -18.21 
1310 -17.96 
1311 -17.72 
1312 -17.54 
1313 -17.38 
1314 -16.27 
1315 18.19 
1316 17.58 
1317 17.33 
1318 17.11 
1319 16.95 
1320 16.81 
1321 -15.18 
1322 -18.48 
1323 -18.10 
1324 -17.83 
1325 -17.63 
1326 -17.49 
1327 -17.38 
1328 19.05 
1329 17.83 
1330 17.49 
1331 17.26 
1332 17.06 
1333 16.92 
1334 16.79 
1335 -19.14 
1336 -18.30 
1337 -17.96 
1338 -17.76 
1339 -17.58 
1340 -17.44 
1341 -17.31 
1342 18.46 
1343 17.69 
1344 17.40 
1345 17.20 
1346 17.02 
1347 16.88 
1348 16.88 
1349 -18.85 
1350 -18.21 
1351 -17.92 
1352 -17.72 
1353 -17.54 
1354 -17.38 
1355 -17.72 
1356 18.24 
1357 17.58 
1358 17.33 
1359 17.13 
1360 16.95 
1361 16.81 
1362 -9.468 
1363 -18.55 
1364 -18.10 
1365 -17.85 
1366 -17.65 
1367 -17.47 
1368 -17.38 
1369 18.05 
1370 17.85 
1371 17.51 
1372 17.26 
1373 17.06 
1374 16.90 
1375 16.79 
1376 -19.25 
1377 -18.33 
1378 -18.01 
1379 -17.76 
1380 -17.56 
1381 -17.47 
1382 -17.33 
1383 18.51 
1384 17.74 
1385 17.40 
1386 17.17 
1387 17.02 
1388 16.88 
1389 16.74 
1390 -18.89 
1391 -18.21 
1392 -17.92 
1393 -17.72 
1394 -17.54 
1395 -17.40 
1396 -17.69 
1397 18.26 
1398 17.60 
1399 17.33 
1400 17.13 
1401 16.97 
1402 16.81 
1403 -0.700 
1404 -18.69 
1405 -18.10 
1406 -17.87 
1407 -17.67 
1408 -17.47 
1409 -17.35 
1410 14.19 
1411 17.92 
1412 17.51 
1413 17.26 
1414 17.06 
1415 16.90 
1416 16.81 
1417 -19.52 
1418 -18.35 
1419 -18.03 
1420 -17.76 
1421 -17.58 
1422 -17.44 
1423 -17.35 
1424 18.60 
1425 17.76 
1426 17.44 
1427 17.20 
1428 17.02 
1429 16.88 
1430 16.79 
1431 -18.91 
1432 -18.21 
1433 -17.92 
1434 -17.69 
1435 -17.54 
1436 -17.40 
1437 -17.69 
1438 18.30 
1439 17.63 
1440 17.35 
1441 17.13 
1442 16.99 
1443 16.83 
1444 12.88 
1445 -18.66 
1446 -18.10 
1447 -17.85 
1448 -17.65 
1449 -17.49 
1450 -17.33 
1451 8.361 
1452 18.01 
1453 17.54 
1454 17.29 
1455 17.08 
1456 16.92 
1457 16.79 
1458 -20.38 
1459 -18.30 
1460 -18.03 
1461 -17.76 
1462 -17.58 
1463 -17.40 
1464 -17.31 
1465 18.78 
1466 17.78 
1467 17.44 
1468 17.20 
1469 17.02 
1470 16.88 
1471 16.77 
1472 -18.91 
1473 -18.24 
1474 -17.92 
1475 -17.72 
1476 -17.51 
1477 -17.40 
1478 -17.85 
1479 18.33 
1480 17.65 
1481 17.35 
1482 17.13 
1483 16.99 
1484 16.83 
1485 17.02 
1486 -18.78 
1487 -18.12 
1488 -17.87 
1489 -17.67 
1490 -17.51 
1491 -17.38 
1492 0.949 
1493 18.12 
1494 17.51 
1495 17.26 
1496 17.08 
1497 16.92 
1498 16.77 
1499 -20.59 
1500 -18.35 
1501 -18.03 
1502 -17.85 
1503 -17.63 
1504 -17.47 
1505 -17.35 
1506 19.21 
1507 17.76 
1508 17.44 
1509 17.22 
1510 16.99 
1511 16.88 
1512 16.77 
1513 -19.00 
1514 -18.28 
1515 -17.99 
1516 -17.72 
1517 -17.56 
1518 -17.42 
1519 -17.78 
1520 18.37 
1521 17.65 
1522 17.38 
1523 17.11 
1524 16.97 
1525 16.83 
1526 16.99 
1527 -18.80 
1528 -18.17 
1529 -17.87 
1530 -17.65 
1531 -17.49 
1532 -17.38 
1533 -9.129 
1534 18.08 
1535 17.54 
1536 17.29 
1537 17.11 
1538 16.95 
1539 16.81 
1540 -17.47 
1541 -18.39 
1542 -18.03 
1543 -17.78 
1544 -17.60 
1545 -17.44 
1546 -17.31 
1547 19.09 
1548 17.78 
1549 17.47 
1550 17.24 
1551 17.06 
1552 16.88 
1553 16.77 
1554 -19.03 
1555 -18.24 
1556 -17.94 
1557 -17.72 
1558 -17.51 
1559 -17.33 
1560 -17.29 
1561 18.39 
1562 17.69 
1563 17.40 
1564 17.17 
1565 16.99 
1566 16.88 
1567 17.02 
1568 -18.73 
1569 -18.12 
1570 -17.83 
1571 -17.60 
1572 -17.44 
1573 -17.33 
1574 -17.56 
1575 18.21 
1576 17.60 
1577 17.31 
1578 17.11 
1579 16.95 
1580 16.83 
1581 -13.22 
1582 -18.44 
1583 -18.01 
1584 -17.74 
1585 -17.56 
1586 -17.42 
1587 -17.26 
1588 19.05 
1589 17.81 
1590 17.47 
1591 17.24 
1592 17.08 
1593 16.90 
1594 16.77 
1595 -19.07 
1596 -18.21 
1597 -17.90 
1598 -17.69 
1599 -17.49 
1600 -17.35 
1601 -17.24 
1602 18.46 
1603 17.72 
1604 17.42 
1605 17.20 
1606 16.99 
1607 16.88 
1608 16.79 
1609 -18.76 
1610 -18.10 
1611 -17.83 
1612 -17.63 
1613 -17.44 
1614 -17.33 
1615 -17.65 
1616 18.26 
1617 17.60 
1618 17.35 
1619 17.08 
1620 16.97 
1621 16.83 
1622 -6.711 
1623 -18.53 
1624 -18.03 
1625 -17.76 
1626 -17.54 
1627 -17.42 
1628 -17.31 
1629 17.04 
1630 17.87 
1631 17.49 
1632 17.24 
1633 17.06 
1634 16.92 
1635 16.79 
1636 -19.25 
1637 -18.24 
1638 -17.94 
1639 -17.67 
1640 -17.54 
1641 -17.35 
1642 -17.26 
1643 18.53 
1644 17.69 
1645 17.40 
1646 17.17 
1647 17.02 
1648 16.88 
1649 16.74 
