<?xml version="1.0" encoding="UTF-8"?>
<Profile>
<triggerMode>AUTO</triggerMode>
<triggerKind>EdgeFalling</triggerKind>
<triggerLevel>24.0V</triggerLevel>
<triggerSensitivity>3.20V</triggerSensitivity>
<attenuation>x1</attenuation>
<voltageDiv>10V</voltageDiv>
<timeDiv>200us</timeDiv>
<sampleDiv>200us</sampleDiv>
<firmware>V3.62</firmware>
<fileNumber>S005</fileNumber>
<triggerIndex>1513</triggerIndex>
<sampleCount>4098</sampleCount>
<timeRange>32.78e-3</timeRange>
</Profile>
0 -13.26 
1 -11.28 
2 -11.12 
3 -10.98 
4 -10.94 
5 -10.89 
6 -10.80 
7 12.88 
8 12.16 
9 11.93 
10 11.73 
11 11.59 
12 11.50 
13 11.41 
14 -11.57 
15 -11.23 
16 -11.12 
17 -11.00 
18 -10.91 
19 -10.85 
20 -10.85 
21 12.47 
22 12.09 
23 11.89 
24 11.75 
25 11.59 
26 11.48 
27 11.41 
28 -11.41 
29 -11.19 
30 -11.05 
31 -11.00 
32 -10.89 
33 -10.91 
34 -10.85 
35 12.47 
36 12.09 
37 11.93 
38 11.73 
39 11.64 
40 11.52 
41 11.46 
42 -11.52 
43 -11.25 
44 -11.16 
45 -11.03 
46 -10.98 
47 -10.94 
48 -0.994 
49 12.25 
50 12.04 
51 11.80 
52 11.68 
53 11.57 
54 11.46 
55 -14.12 
56 -11.39 
57 -11.25 
58 -11.07 
59 -11.05 
60 -10.98 
61 -10.91 
62 12.99 
63 12.16 
64 11.91 
65 11.71 
66 11.59 
67 11.52 
68 11.39 
69 -11.50 
70 -11.23 
71 -11.09 
72 -11.00 
73 -10.94 
74 -10.87 
75 -10.85 
76 12.45 
77 12.07 
78 11.84 
79 11.73 
80 11.57 
81 11.43 
82 11.39 
83 11.34 
84 11.30 
85 11.23 
86 11.21 
87 11.21 
88 -12.25 
89 -11.82 
90 -11.66 
91 -11.43 
92 -11.30 
93 -11.16 
94 -11.14 
95 -11.05 
96 -10.98 
97 -10.94 
98 -10.94 
99 -10.91 
100 12.56 
101 12.16 
102 11.93 
103 11.77 
104 11.61 
105 11.55 
106 11.43 
107 -11.57 
108 -11.25 
109 -11.14 
110 -11.05 
111 -11.00 
112 -10.94 
113 -1.017 
114 12.32 
115 12.04 
116 11.86 
117 11.68 
118 11.61 
119 11.52 
120 -5.740 
121 -11.50 
122 -11.28 
123 -11.12 
124 -11.03 
125 -10.98 
126 -10.94 
127 12.99 
128 12.16 
129 11.93 
130 11.80 
131 11.66 
132 11.50 
133 11.41 
134 -11.43 
135 -11.16 
136 -11.00 
137 -11.00 
138 -10.91 
139 -10.80 
140 -10.78 
141 12.52 
142 12.13 
143 11.89 
144 11.73 
145 11.59 
146 11.48 
147 11.39 
148 -11.41 
149 -11.16 
150 -11.03 
151 -10.94 
152 -10.87 
153 -10.85 
154 -10.80 
155 12.45 
156 12.07 
157 11.89 
158 11.68 
159 11.55 
160 11.50 
161 11.41 
162 -11.55 
163 -11.28 
164 -11.19 
165 -11.07 
166 -10.98 
167 -10.94 
168 -1.198 
169 12.22 
170 12.02 
171 11.82 
172 11.66 
173 11.59 
174 11.48 
175 -14.85 
176 -11.32 
177 -11.23 
178 -11.05 
179 -11.03 
180 -10.96 
181 -10.94 
182 13.02 
183 12.20 
184 11.98 
185 11.80 
186 11.68 
187 11.52 
188 11.46 
189 -11.50 
190 -11.28 
191 -11.09 
192 -11.03 
193 -10.96 
194 -10.89 
195 -10.82 
196 12.52 
197 12.11 
198 11.86 
199 11.73 
200 11.59 
201 11.48 
202 11.37 
203 -11.43 
204 -11.21 
205 -11.05 
206 -10.96 
207 -10.91 
208 -10.85 
209 -10.78 
210 12.41 
211 12.02 
212 11.84 
213 11.66 
214 11.50 
215 11.46 
216 11.39 
217 11.32 
218 11.23 
219 11.25 
220 11.21 
221 11.21 
222 -12.16 
223 -11.77 
224 -11.55 
225 -11.37 
226 -11.25 
227 -11.19 
228 -11.09 
229 -10.98 
230 -10.96 
231 -10.94 
232 -10.91 
233 -1.243 
234 12.34 
235 12.09 
236 11.89 
237 11.75 
238 11.64 
239 11.52 
240 11.46 
241 11.39 
242 11.34 
243 11.34 
244 11.25 
245 -7.163 
246 -12.13 
247 -11.82 
248 -11.59 
249 -11.48 
250 -11.32 
251 -11.23 
252 -11.12 
253 -11.05 
254 -11.00 
255 -10.96 
256 -10.89 
257 13.13 
258 12.29 
259 12.04 
260 11.86 
261 11.66 
262 11.59 
263 11.50 
264 11.41 
265 11.32 
266 11.32 
267 11.28 
268 11.23 
269 -12.43 
270 -11.98 
271 -11.73 
272 -11.48 
273 -11.37 
274 -11.28 
275 -11.12 
276 -11.00 
277 -10.98 
278 -10.96 
279 -10.87 
280 -10.82 
281 12.56 
282 12.18 
283 11.93 
284 11.75 
285 11.66 
286 11.52 
287 11.43 
288 11.34 
289 11.34 
290 11.30 
291 11.23 
292 11.23 
293 -12.41 
294 -11.89 
295 -11.66 
296 -11.50 
297 -11.37 
298 -11.25 
299 -11.12 
300 -11.12 
301 -11.03 
302 -10.98 
303 -10.91 
304 -10.94 
305 12.59 
306 12.18 
307 11.95 
308 11.82 
309 11.66 
310 11.57 
311 11.50 
312 11.43 
313 11.37 
314 11.32 
315 11.32 
316 11.28 
317 -12.29 
318 -11.91 
319 -11.68 
320 -11.50 
321 -11.41 
322 -11.25 
323 -11.16 
324 -11.09 
325 -11.05 
326 -11.00 
327 -10.94 
328 -1.582 
329 12.34 
330 12.09 
331 11.86 
332 11.77 
333 11.61 
334 11.50 
335 11.41 
336 11.41 
337 11.34 
338 11.25 
339 11.23 
340 -7.367 
341 -12.04 
342 -11.68 
343 -11.52 
344 -11.37 
345 -11.21 
346 -11.09 
347 -11.07 
348 -11.00 
349 -10.89 
350 -10.87 
351 -10.89 
352 13.17 
353 12.27 
354 12.02 
355 11.84 
356 11.68 
357 11.57 
358 11.48 
359 11.43 
360 11.34 
361 11.30 
362 11.28 
363 11.30 
364 -12.54 
365 -11.98 
366 -11.73 
367 -11.55 
368 -11.41 
369 -11.28 
370 -11.21 
371 -11.07 
372 -11.07 
373 -10.98 
374 -10.96 
375 -10.91 
376 12.70 
377 12.20 
378 12.04 
379 11.86 
380 11.73 
381 11.57 
382 11.50 
383 11.48 
384 11.41 
385 11.34 
386 11.30 
387 11.32 
388 -12.41 
389 -11.95 
390 -11.73 
391 -11.57 
392 -11.37 
393 -11.28 
394 -11.19 
395 -11.12 
396 -11.03 
397 -10.96 
398 -10.98 
399 -10.91 
400 12.61 
401 12.16 
402 11.95 
403 11.77 
404 11.64 
405 11.52 
406 11.48 
407 11.37 
408 11.30 
409 11.28 
410 11.30 
411 11.23 
412 -12.18 
413 -11.82 
414 -11.61 
415 -11.41 
416 -11.28 
417 -11.21 
418 -11.09 
419 -11.00 
420 -10.96 
421 -10.94 
422 -10.87 
423 -2.192 
424 12.27 
425 12.07 
426 11.86 
427 11.73 
428 11.55 
429 11.50 
430 11.41 
431 11.39 
432 11.30 
433 11.28 
434 11.25 
435 -12.77 
436 -12.09 
437 -11.82 
438 -11.61 
439 -11.41 
440 -11.32 
441 -11.21 
442 -11.14 
443 -11.03 
444 -11.03 
445 -10.98 
446 -10.96 
447 13.15 
448 12.34 
449 12.04 
450 11.86 
451 11.73 
452 11.61 
453 11.55 
454 -11.55 
455 -11.43 
456 -11.28 
457 -11.19 
458 -11.07 
459 -11.05 
460 -10.98 
461 12.65 
462 12.18 
463 11.91 
464 11.80 
465 11.66 
466 11.55 
467 11.41 
468 -11.61 
469 -11.25 
470 -11.12 
471 -11.00 
472 -10.98 
473 -10.89 
474 -10.82 
475 12.47 
476 12.09 
477 11.89 
478 11.68 
479 11.57 
480 11.48 
481 11.39 
482 -11.30 
483 -11.09 
484 -11.05 
485 -10.91 
486 -10.82 
487 -10.82 
488 -2.056 
489 12.20 
490 12.00 
491 11.84 
492 11.66 
493 11.52 
494 11.43 
495 -15.64 
496 -11.32 
497 -11.19 
498 -11.05 
499 -10.98 
500 -10.87 
501 -10.87 
502 12.95 
503 12.22 
504 11.98 
505 11.75 
506 11.64 
507 11.55 
508 11.48 
509 -11.41 
510 -11.28 
511 -11.09 
512 -11.05 
513 -10.94 
514 -10.94 
515 -10.89 
516 12.61 
517 12.18 
518 11.95 
519 11.77 
520 11.66 
521 11.55 
522 11.46 
523 -11.64 
524 -11.25 
525 -11.12 
526 -11.03 
527 -11.00 
528 -10.91 
529 -10.89 
530 12.47 
531 12.11 
532 11.86 
533 11.68 
534 11.61 
535 11.50 
536 11.41 
537 -11.50 
538 -11.25 
539 -11.14 
540 -11.05 
541 -10.91 
542 -10.91 
543 -1.876 
544 12.16 
545 11.93 
546 11.80 
547 11.64 
548 11.48 
549 11.39 
550 -16.25 
551 -11.23 
552 -11.09 
553 -11.00 
554 -10.94 
555 -10.85 
556 -10.80 
557 12.97 
558 12.18 
559 11.91 
560 11.75 
561 11.57 
562 11.50 
563 11.41 
564 -11.37 
565 -11.21 
566 -11.07 
567 -10.98 
568 -10.87 
569 -10.89 
570 -10.85 
571 12.61 
572 12.13 
573 11.93 
574 11.73 
575 11.64 
576 11.52 
577 11.48 
578 -11.68 
579 -11.30 
580 -11.16 
581 -11.05 
582 -11.03 
583 -10.91 
584 -10.91 
585 12.45 
586 12.09 
587 11.86 
588 11.73 
589 11.61 
590 11.52 
591 11.41 
592 -11.52 
593 -11.32 
594 -11.16 
595 -11.07 
596 -11.00 
597 -10.96 
598 -2.666 
599 12.29 
600 11.98 
601 11.84 
602 11.66 
603 11.55 
604 11.43 
605 -15.91 
606 -11.25 
607 -11.07 
608 -11.00 
609 -10.98 
610 -10.89 
611 -10.80 
612 12.97 
613 12.20 
614 11.93 
615 11.75 
616 11.64 
617 11.50 
618 11.39 
619 -11.30 
620 -11.19 
621 -11.07 
622 -10.94 
623 -10.87 
624 -10.85 
625 -10.80 
626 12.56 
627 12.11 
628 11.93 
629 11.71 
630 11.57 
631 11.48 
632 11.43 
633 -11.50 
634 -11.23 
635 -11.12 
636 -11.00 
637 -10.91 
638 -10.87 
639 -10.87 
640 12.45 
641 12.09 
642 11.84 
643 11.73 
644 11.59 
645 11.52 
646 11.43 
647 -11.46 
648 -11.19 
649 -11.07 
650 -10.98 
651 -10.94 
652 -10.94 
653 -2.056 
654 12.29 
655 12.04 
656 11.86 
657 11.71 
658 11.61 
659 11.48 
660 -16.61 
661 -11.30 
662 -11.16 
663 -11.09 
664 -11.03 
665 -10.96 
666 -10.85 
667 13.04 
668 12.20 
669 11.98 
670 11.77 
671 11.66 
672 11.52 
673 11.39 
674 -11.46 
675 -11.28 
676 -11.14 
677 -11.00 
678 -10.94 
679 -10.89 
680 -10.85 
681 12.54 
682 12.07 
683 11.89 
684 11.68 
685 11.52 
686 11.43 
687 11.39 
688 -11.52 
689 -11.21 
690 -11.12 
691 -11.00 
692 -10.89 
693 -10.85 
694 -10.87 
695 12.38 
696 12.02 
697 11.82 
698 11.68 
699 11.55 
700 11.46 
701 11.39 
702 -11.41 
703 -11.14 
704 -11.03 
705 -10.96 
706 -10.91 
707 -10.89 
708 -2.260 
709 12.32 
710 12.02 
711 11.84 
712 11.68 
713 11.59 
714 11.50 
715 -16.65 
716 -11.34 
717 -11.23 
718 -11.12 
719 -11.05 
720 -10.98 
721 -10.91 
722 13.06 
723 12.22 
724 11.98 
725 11.77 
726 11.68 
727 11.57 
728 11.48 
729 -11.64 
730 -11.32 
731 -11.14 
732 -11.05 
733 -10.98 
734 -10.94 
735 -10.87 
736 12.63 
737 12.11 
738 11.91 
739 11.77 
740 11.59 
741 11.48 
742 11.41 
743 -11.43 
744 -11.12 
745 -11.07 
746 -10.96 
747 -10.85 
748 -10.78 
749 -10.80 
750 12.38 
751 12.04 
752 11.84 
753 11.68 
754 11.52 
755 11.43 
756 11.39 
757 -11.37 
758 -11.09 
759 -10.98 
760 -10.91 
761 -10.87 
762 -10.82 
763 -2.892 
764 12.29 
765 12.02 
766 11.82 
767 11.64 
768 11.55 
769 11.46 
770 -16.99 
771 -11.30 
772 -11.21 
773 -11.07 
774 -10.98 
775 -10.96 
776 -10.91 
777 12.97 
778 12.20 
779 11.98 
780 11.77 
781 11.68 
782 11.55 
783 11.48 
784 -11.68 
785 -11.30 
786 -11.12 
787 -11.05 
788 -11.00 
789 -10.96 
790 -10.87 
791 12.72 
792 12.18 
793 11.93 
794 11.80 
795 11.64 
796 11.52 
797 11.43 
798 11.39 
799 11.32 
800 11.32 
801 11.23 
802 11.19 
803 -12.22 
804 -11.89 
805 -11.66 
806 -11.46 
807 -11.30 
808 -11.21 
809 -11.14 
810 -11.00 
811 -10.98 
812 -10.91 
813 -10.87 
814 -10.82 
815 12.47 
816 12.11 
817 11.86 
818 11.68 
819 11.59 
820 11.50 
821 11.41 
822 -11.59 
823 -11.32 
824 -11.14 
825 -11.03 
826 -10.96 
827 -10.96 
828 -3.322 
829 12.27 
830 12.00 
831 11.80 
832 11.66 
833 11.52 
834 11.48 
835 -17.11 
836 -11.32 
837 -11.21 
838 -11.12 
839 -11.03 
840 -10.98 
841 -10.91 
842 13.04 
843 12.20 
844 11.95 
845 11.80 
846 11.71 
847 11.57 
848 11.46 
849 -11.61 
850 -11.25 
851 -11.14 
852 -11.05 
853 -11.00 
854 -10.91 
855 -10.89 
856 12.72 
857 12.18 
858 11.93 
859 11.82 
860 11.64 
861 11.50 
862 11.43 
863 -11.48 
864 -11.21 
865 -11.09 
866 -11.00 
867 -10.91 
868 -10.87 
869 -10.82 
870 12.43 
871 12.07 
872 11.86 
873 11.66 
874 11.57 
875 11.48 
876 11.39 
877 -11.50 
878 -11.25 
879 -11.09 
880 -10.96 
881 -10.91 
882 -10.91 
883 -3.028 
884 12.22 
885 11.98 
886 11.80 
887 11.59 
888 11.50 
889 11.41 
890 -16.88 
891 -11.21 
892 -11.09 
893 -11.00 
894 -10.91 
895 -10.87 
896 -10.82 
897 12.97 
898 12.18 
899 11.93 
900 11.75 
901 11.66 
902 11.55 
903 11.46 
904 -11.64 
905 -11.23 
906 -11.07 
907 -10.98 
908 -10.98 
909 -10.89 
910 -10.87 
911 12.72 
912 12.20 
913 11.93 
914 11.82 
915 11.66 
916 11.57 
917 11.46 
918 -11.52 
919 -11.25 
920 -11.14 
921 -11.09 
922 -10.98 
923 -10.91 
924 -10.87 
925 12.43 
926 12.09 
927 11.91 
928 11.71 
929 11.59 
930 11.48 
931 11.39 
932 11.34 
933 11.30 
934 11.25 
935 11.19 
936 11.19 
937 -12.25 
938 -11.82 
939 -11.57 
940 -11.41 
941 -11.28 
942 -11.16 
943 -11.05 
944 -11.00 
945 -10.94 
946 -10.87 
947 -10.85 
948 -4.293 
949 12.36 
950 12.00 
951 11.80 
952 11.71 
953 11.55 
954 11.48 
955 11.37 
956 11.34 
957 11.28 
958 11.25 
959 11.21 
960 -17.92 
961 -11.95 
962 -11.71 
963 -11.57 
964 -11.41 
965 -11.28 
966 -11.12 
967 -11.12 
968 -11.03 
969 -11.00 
970 -10.91 
971 -10.91 
972 13.24 
973 12.29 
974 12.04 
975 11.91 
976 11.73 
977 11.61 
978 11.55 
979 11.46 
980 11.41 
981 11.32 
982 11.32 
983 11.30 
984 -13.04 
985 -12.07 
986 -11.80 
987 -11.59 
988 -11.43 
989 -11.32 
990 -11.21 
991 -11.12 
992 -11.05 
993 -11.00 
994 -10.94 
995 -10.94 
996 12.81 
997 12.25 
998 11.98 
999 11.84 
1000 11.71 
1001 11.57 
1002 11.46 
1003 11.43 
1004 11.37 
1005 11.30 
1006 11.25 
1007 11.25 
1008 -12.25 
1009 -11.89 
1010 -11.68 
1011 -11.50 
1012 -11.30 
1013 -11.19 
1014 -11.12 
1015 -11.07 
1016 -10.94 
1017 -10.89 
1018 -10.89 
1019 -10.89 
1020 12.45 
1021 12.13 
1022 11.93 
1023 11.73 
1024 11.59 
1025 11.50 
1026 11.48 
1027 11.34 
1028 11.30 
1029 11.28 
1030 11.30 
1031 11.25 
1032 -12.25 
1033 -11.84 
1034 -11.57 
1035 -11.41 
1036 -11.28 
1037 -11.21 
1038 -11.09 
1039 -11.05 
1040 -10.98 
1041 -11.00 
1042 -10.91 
1043 -4.926 
1044 12.43 
1045 12.13 
1046 11.93 
1047 11.75 
1048 11.66 
1049 11.52 
1050 11.48 
1051 11.41 
1052 11.39 
1053 11.32 
1054 11.30 
1055 -13.65 
1056 -12.11 
1057 -11.89 
1058 -11.68 
1059 -11.48 
1060 -11.32 
1061 -11.25 
1062 -11.19 
1063 -11.09 
1064 -11.00 
1065 -11.03 
1066 -10.96 
1067 13.87 
1068 12.29 
1069 12.09 
1070 11.86 
1071 11.71 
1072 11.59 
1073 11.52 
1074 11.46 
1075 11.32 
1076 11.32 
1077 11.30 
1078 11.28 
1079 -12.97 
1080 -12.00 
1081 -11.73 
1082 -11.48 
1083 -11.34 
1084 -11.28 
1085 -11.16 
1086 -11.03 
1087 -10.96 
1088 -10.98 
1089 -10.91 
1090 -10.85 
1091 12.68 
1092 12.20 
1093 11.95 
1094 11.80 
1095 11.66 
1096 11.57 
1097 11.43 
1098 11.41 
1099 11.34 
1100 11.32 
1101 11.25 
1102 11.23 
1103 -12.25 
1104 -11.91 
1105 -11.68 
1106 -11.46 
1107 -11.37 
1108 -11.23 
1109 -11.16 
1110 -11.07 
1111 -11.03 
1112 -10.96 
1113 -10.96 
1114 -10.91 
1115 12.59 
1116 12.20 
1117 11.95 
1118 11.80 
1119 11.68 
1120 11.61 
1121 11.48 
1122 11.43 
1123 11.39 
1124 11.39 
1125 11.32 
1126 11.30 
1127 -12.36 
1128 -11.93 
1129 -11.66 
1130 -11.50 
1131 -11.41 
1132 -11.28 
1133 -11.16 
1134 -11.07 
1135 -11.07 
1136 -10.98 
1137 -10.96 
1138 -7.254 
1139 12.45 
1140 12.09 
1141 11.89 
1142 11.75 
1143 11.61 
1144 11.50 
1145 11.41 
1146 11.39 
1147 11.34 
1148 11.30 
1149 11.23 
1150 -16.83 
1151 -12.00 
1152 -11.77 
1153 -11.55 
1154 -11.41 
1155 -11.28 
1156 -11.16 
1157 -11.07 
1158 -11.03 
1159 -10.96 
1160 -10.91 
1161 -10.87 
1162 13.67 
1163 12.25 
1164 12.00 
1165 11.80 
1166 11.68 
1167 11.55 
1168 11.50 
1169 -11.95 
1170 -11.48 
1171 -11.25 
1172 -11.12 
1173 -11.09 
1174 -11.00 
1175 -10.96 
1176 12.59 
1177 12.13 
1178 11.91 
1179 11.77 
1180 11.64 
1181 11.55 
1182 11.43 
1183 -11.52 
1184 -11.32 
1185 -11.21 
1186 -11.14 
1187 -11.03 
1188 -10.98 
1189 -10.91 
1190 12.52 
1191 12.07 
1192 11.93 
1193 11.75 
1194 11.66 
1195 11.50 
1196 11.46 
1197 -11.50 
1198 -11.23 
1199 -11.09 
1200 -11.00 
1201 -10.96 
1202 -10.91 
1203 -8.971 
1204 12.36 
1205 12.07 
1206 11.89 
1207 11.71 
1208 11.55 
1209 11.50 
1210 -14.12 
1211 -11.32 
1212 -11.23 
1213 -11.12 
1214 -11.00 
1215 -10.89 
1216 -10.89 
1217 13.58 
1218 12.18 
1219 11.93 
1220 11.75 
1221 11.61 
1222 11.50 
1223 11.41 
1224 -11.77 
1225 -11.34 
1226 -11.12 
1227 -10.98 
1228 -10.94 
1229 -10.91 
1230 -10.82 
1231 12.50 
1232 12.13 
1233 11.86 
1234 11.71 
1235 11.57 
1236 11.52 
1237 11.39 
1238 -11.43 
1239 -11.19 
1240 -11.07 
1241 -10.98 
1242 -10.91 
1243 -10.87 
1244 -10.85 
1245 12.47 
1246 12.04 
1247 11.89 
1248 11.73 
1249 11.64 
1250 11.50 
1251 11.46 
1252 -11.52 
1253 -11.23 
1254 -11.09 
1255 -11.05 
1256 -10.98 
1257 -10.89 
1258 -6.350 
1259 12.36 
1260 12.04 
1261 11.86 
1262 11.71 
1263 11.57 
1264 11.50 
1265 -10.78 
1266 -11.41 
1267 -11.25 
1268 -11.19 
1269 -11.03 
1270 -10.94 
1271 -10.89 
1272 13.42 
1273 12.18 
1274 11.93 
1275 11.80 
1276 11.64 
1277 11.52 
1278 11.41 
1279 -11.66 
1280 -11.25 
1281 -11.09 
1282 -10.98 
1283 -10.94 
1284 -10.87 
1285 -10.80 
1286 12.47 
1287 12.13 
1288 11.91 
1289 11.66 
1290 11.57 
1291 11.52 
1292 11.41 
1293 -11.50 
1294 -11.23 
1295 -11.09 
1296 -10.96 
1297 -10.91 
1298 -10.89 
1299 -10.82 
1300 12.45 
1301 12.02 
1302 11.84 
1303 11.68 
1304 11.59 
1305 11.46 
1306 11.41 
1307 -11.55 
1308 -11.23 
1309 -11.07 
1310 -11.03 
1311 -10.96 
1312 -10.89 
1313 -8.835 
1314 12.36 
1315 12.02 
1316 11.82 
1317 11.71 
1318 11.57 
1319 11.48 
1320 -7.344 
1321 -11.37 
1322 -11.16 
1323 -11.09 
1324 -11.00 
1325 -10.96 
1326 -10.89 
1327 13.42 
1328 12.20 
1329 11.98 
1330 11.84 
1331 11.68 
1332 11.57 
1333 11.46 
1334 -11.64 
1335 -11.28 
1336 -11.16 
1337 -11.03 
1338 -10.98 
1339 -10.89 
1340 -10.87 
1341 12.52 
1342 12.16 
1343 11.93 
1344 11.71 
1345 11.57 
1346 11.52 
1347 11.43 
1348 -11.50 
1349 -11.28 
1350 -11.14 
1351 -11.00 
1352 -10.91 
1353 -10.91 
1354 -10.85 
1355 12.43 
1356 12.00 
1357 11.82 
1358 11.66 
1359 11.52 
1360 11.43 
1361 11.37 
1362 -11.50 
1363 -11.19 
1364 -11.05 
1365 -10.98 
1366 -10.91 
1367 -10.85 
1368 -9.197 
1369 12.34 
1370 11.98 
1371 11.80 
1372 11.66 
1373 11.55 
1374 11.46 
1375 -12.97 
1376 -11.25 
1377 -11.12 
1378 -11.03 
1379 -10.94 
1380 -10.91 
1381 -10.87 
1382 13.69 
1383 12.20 
1384 12.00 
1385 11.82 
1386 11.71 
1387 11.55 
1388 11.46 
1389 -11.61 
1390 -11.32 
1391 -11.23 
1392 -11.09 
1393 -11.05 
1394 -10.96 
1395 -10.94 
1396 12.54 
1397 12.18 
1398 11.93 
1399 11.75 
1400 11.61 
1401 11.50 
1402 11.43 
1403 -11.57 
1404 -11.32 
1405 -11.19 
1406 -11.07 
1407 -10.96 
1408 -10.96 
1409 -10.89 
1410 12.45 
1411 12.02 
1412 11.84 
1413 11.66 
1414 11.50 
1415 11.43 
1416 11.39 
1417 -11.48 
1418 -11.14 
1419 -11.03 
1420 -10.96 
1421 -10.87 
1422 -10.82 
1423 -9.287 
1424 12.34 
1425 11.95 
1426 11.75 
1427 11.64 
1428 11.55 
1429 11.43 
1430 0.407 
1431 -11.25 
1432 -11.12 
1433 -11.03 
1434 -10.91 
1435 -10.91 
1436 -10.85 
1437 13.85 
1438 12.18 
1439 11.95 
1440 11.77 
1441 11.64 
1442 11.55 
1443 11.43 
1444 -11.50 
1445 -11.30 
1446 -11.19 
1447 -11.09 
1448 -11.03 
1449 -10.94 
1450 -10.91 
1451 12.54 
1452 12.16 
1453 11.93 
1454 11.77 
1455 11.64 
1456 11.52 
1457 11.43 
1458 -11.59 
1459 -11.37 
1460 -11.23 
1461 -11.14 
1462 -11.00 
1463 -10.98 
1464 -10.91 
1465 12.47 
1466 12.04 
1467 11.89 
1468 11.71 
1469 11.52 
1470 11.46 
1471 11.41 
1472 -11.41 
1473 -11.19 
1474 -11.07 
1475 -10.98 
1476 -10.91 
1477 -10.85 
1478 -9.875 
1479 12.34 
1480 12.00 
1481 11.77 
1482 11.64 
1483 11.55 
1484 11.41 
1485 -6.079 
1486 -11.39 
1487 -11.14 
1488 -10.98 
1489 -10.94 
1490 -10.89 
1491 -10.82 
1492 13.74 
1493 12.18 
1494 11.95 
1495 11.73 
1496 11.61 
1497 11.50 
1498 11.46 
1499 -11.43 
1500 -11.23 
1501 -11.12 
1502 -11.00 
1503 -10.96 
1504 -10.87 
1505 -10.87 
1506 12.54 
1507 12.13 
1508 11.91 
1509 11.77 
1510 11.64 
1511 11.55 
1512 11.43 
1513 11.39 
1514 11.37 
1515 11.30 
1516 11.25 
1517 11.23 
1518 -12.41 
1519 -11.91 
1520 -11.73 
1521 -11.52 
1522 -11.39 
1523 -11.23 
1524 -11.21 
1525 -11.09 
1526 -11.05 
1527 -10.96 
1528 -10.94 
1529 -10.96 
1530 12.61 
1531 12.16 
1532 11.91 
1533 11.75 
1534 11.61 
1535 11.55 
1536 11.43 
1537 -11.55 
1538 -11.30 
1539 -11.14 
1540 -11.03 
1541 -11.03 
1542 -10.96 
1543 -10.85 
1544 12.32 
1545 12.00 
1546 11.80 
1547 11.61 
1548 11.55 
1549 11.46 
1550 4.542 
1551 -11.43 
1552 -11.25 
1553 -11.12 
1554 -11.00 
1555 -10.94 
1556 -10.91 
1557 13.74 
1558 12.11 
1559 11.86 
1560 11.73 
1561 11.57 
1562 11.48 
1563 11.37 
1564 -11.59 
1565 -11.28 
1566 -11.16 
1567 -11.07 
1568 -11.00 
1569 -10.91 
1570 -10.89 
1571 12.50 
1572 12.09 
1573 11.89 
1574 11.73 
1575 11.61 
1576 11.48 
1577 11.41 
1578 -11.59 
1579 -11.25 
1580 -11.14 
1581 -11.05 
1582 -10.94 
1583 -10.94 
1584 -10.89 
1585 12.54 
1586 12.11 
1587 11.89 
1588 11.75 
1589 11.59 
1590 11.50 
1591 11.43 
1592 -11.59 
1593 -11.32 
1594 -11.23 
1595 -11.12 
1596 -11.03 
1597 -10.96 
1598 -10.96 
1599 12.34 
1600 12.02 
1601 11.82 
1602 11.64 
1603 11.57 
1604 11.48 
1605 4.836 
1606 -11.37 
1607 -11.21 
1608 -11.05 
1609 -10.94 
1610 -10.89 
1611 -10.89 
1612 13.96 
1613 12.18 
1614 11.95 
1615 11.75 
1616 11.64 
1617 11.46 
1618 11.41 
1619 -11.37 
1620 -11.14 
1621 -11.00 
1622 -10.94 
1623 -10.91 
1624 -10.80 
1625 -10.78 
1626 12.52 
1627 12.11 
1628 11.89 
1629 11.71 
1630 11.59 
1631 11.48 
1632 11.39 
1633 -11.59 
1634 -11.23 
1635 -11.05 
1636 -10.98 
1637 -10.91 
1638 -10.87 
1639 -10.85 
1640 12.45 
1641 12.04 
1642 11.91 
1643 11.73 
1644 11.57 
1645 11.48 
1646 11.43 
1647 11.28 
1648 11.32 
